File: _static/March2024/BMM/Fe_Petedunnite.001
# XDI/1.0 BlueSky/1.11.0 BMM/2023-2.1-py310-tiled
# Beamline.name: BMM (06BM) -- Beamline for Materials Measurement (NIST)
# Beamline.xray_source: NSLS-II three-pole wiggler
# Beamline.collimation: paraboloid mirror, 5 nm Rh on 30 nm Pt
# Beamline.focusing: not in use
# Beamline.harmonic_rejection: flat mirror, Si stripe, pitch = 7.0 mrad relative to beam
# Beamline.software: Bluesky 1.11.0, Ophyd 1.8.0, DataBroker 2.0.0b23, Python 3.10.8, 2023-2.1-py310-tiled
# Detector.I0: 10 cm N2
# Detector.I1: 25 cm N2
# Detector.I2: 25 cm N2
# Detector.fluorescence: SII Vortex ME4 (4-element silicon drift)
# Detector.deadtime_correction: Xspress3
# Element.symbol: Fe
# Element.edge: K
# Element.reference: Fe
# Element.reference_material: Fe foil
# Facility.name: NSLS-II
# Facility.energy: 3.0
# Facility.current: 399.1
# Facility.mode: top-off
# Facility.GUP: 315355
# Facility.SAF: 313563
# Facility.cycle: 2024-1
# Mono.name: Si(111)
# Mono.d_spacing: 3.13542
# Mono.encoder_resolution: 0.0000050 deg/ct
# Mono.angle_offset: 16.0892 deg
# Mono.scan_mode: pseudo channel cut
# Mono.scan_type: step
# Mono.direction: forward in energy
# Sample.name: Ca(Zn,Mn,Fe,Mg)Si2O6
# Sample.prep: powder on tape
# Sample.x: 113.234 mm
# Sample.y: 81.177 mm
# Sample.SDD_position: 35.000 mm
# Scan.experimenters: Bruce Ravel
# Scan.edge_energy: 7112.0
# Scan.start_time: 2024-03-21T14:37:45
# Scan.end_time: 2024-03-21T14:48:12
# Scan.transient_id: 5354
# Scan.uid: 4acdc768-60fd-4cc5-a6a3-1e3597037b3f
# Scan.hdf5file: 2024/03/21/a46b4428-3f2c-42e3-a019_000000.h5
# Scan.plot_hint: (Fe1+Fe2+Fe3+Fe4)/I0  --  ($8+$9+$10+$11)/$5
# Column.1: energy eV
# Column.2: requested_energy eV
# Column.3: measurement_time seconds
# Column.4: xmu
# Column.5: I0 nA
# Column.6: It nA
# Column.7: Ir nA
# Column.8: Fe1
# Column.9: Fe2
# Column.10: Fe3
# Column.11: Fe4
# ///////////
# sample courtesy Martin Stennett, University of Sheffield
# -----------
# energy  requested_energy  measurement_time  xmu  I0  It  Ir  Fe1  Fe2  Fe3  Fe4
  6912.007  6912.000  1.000  21.6357  481.299  34.5257  4.192353  3328.38  3290.77  1716.37  2077.73
  6952.006  6952.000  1.000  19.1672  479.718  36.062  4.509744  2889.51  2944.54  1481.21  1879.61
  6992.012  6992.000  1.000  17.5511  478.93  37.6825  4.850936  2593.67  2639.34  1418.2  1754.54
  7032.007  7032.000  1.000  16.1161  477.747  39.3242  5.205985  2392.65  2386.18  1313.13  1607.46
  7072.005  7072.000  1.000  15.2477  476.151  40.9387  5.554426  2218.58  2273.14  1254.1  1514.39
  7087.995  7088.000  1.000  14.6464  475.282  41.5866  5.673943  2078.64  2110  1277.14  1495.4
  7096.003  7096.000  1.000  14.6578  474.975  41.9096  5.707989  2129.55  2030.94  1294.16  1507.42
  7102.295  7102.300  1.000  15.1367  474.621  42.1546  5.690660  2168.47  2112.03  1374.25  1529.45
  7103.486  7103.500  1.000  15.3834  474.646  42.216  5.677154  2130.79  2218.14  1366.25  1586.51
  7104.690  7104.700  1.000  15.2034  474.72  42.2765  5.657683  2118.53  2131.06  1419.29  1548.47
  7105.891  7105.900  1.000  15.6837  474.637  42.3223  5.624162  2150.05  2218.14  1460.33  1615.54
  7107.099  7107.100  1.000  16.214  474.249  42.3446  5.566277  2288.35  2285.21  1497.36  1618.54
  7108.300  7108.300  1.000  16.7444  474.098  42.392  5.471414  2348.2  2275.19  1566.43  1748.66
  7109.496  7109.500  1.000  16.8904  474.005  42.4336  5.279546  2294.71  2354.28  1604.46  1752.67
  7110.700  7110.700  1.000  21.1257  473.579  42.4379  4.642510  2764.76  2883.81  2064.9  2291.2
  7111.903  7111.900  1.000  31.2103  473.348  42.4481  3.124011  3782.81  3869.78  3513.24  3607.49
  7113.104  7113.100  1.000  38.0251  472.854  42.4471  2.315846  4477.28  4732.66  4320.02  4450.34
  7114.299  7114.300  1.000  42.3284  472.888  42.5052  1.920005  4966  5217.17  4876.58  4956.84
  7115.503  7115.500  1.000  45.6157  472.74  42.5281  1.725193  5332.6  5630.59  5301.98  5299.19
  7116.706  7116.700  1.000  46.4545  472.584  42.5715  1.651680  5439.58  5446.42  5556.24  5511.44
  7117.898  7117.900  1.000  49.8307  472.274  42.58  1.426652  5785.38  6103.1  5944.64  5700.62
  7119.107  7119.100  1.000  55.146  472.06  42.6036  1.061739  6141.67  6447.48  6576.26  6866.84
  7120.311  7120.300  1.000  64.6774  473.673  42.785  0.766197  7296.65  7715.87  7877.61  7745.8
  7121.511  7121.500  1.000  72.7545  473.259  42.7953  0.550083  8135.4  8531.73  8968.71  8795.91
  7122.722  7122.700  1.000  80.4842  473.119  42.8166  0.431326  8967.16  9521.83  9805.61  9783.99
  7123.939  7123.900  1.000  88.5993  472.834  42.8257  0.363570  9683.97  10606  10874.7  10728
  7125.110  7125.100  1.000  95.1275  472.654  42.8587  0.318073  10379  11136.6  11802.7  11644.1
  7126.301  7126.300  1.000  100.697  472.505  42.8771  0.281628  10658.6  11764.4  12672.7  12484.1
  7127.509  7127.500  1.000  107.633  472.047  42.8714  0.244007  11419.8  12434.2  13540.8  13413.1
  7128.705  7128.700  1.000  115.445  471.576  42.8662  0.202704  12519.9  13237.1  14520.8  14163
  7129.903  7129.900  1.000  120.579  471.36  42.9014  0.167297  12824.6  13805.8  15225.6  14980
  7131.098  7131.100  1.000  121.11  470.742  42.8861  0.151990  12935.2  13917.9  15243.5  14914.9
  7132.304  7132.300  1.000  117.81  470.555  42.9249  0.164843  12580.1  13589.6  14773.1  14493.4
  7133.501  7133.500  1.000  116.531  470.552  42.9892  0.195443  12483.6  13488.4  14594.9  14267.2
  7134.699  7134.700  1.000  112.249  470.516  43.0444  0.225433  12133.6  12949.8  13845.1  13886.7
  7135.906  7135.900  1.000  110.45  470.25  43.0856  0.245085  11772  12797.7  13658.9  13710.5
  7137.001  7137.000  1.000  110.434  470.102  43.1273  0.251048  11982.5  12614.5  13809  13509.3
  7141.065  7141.060  1.000  109.354  469.923  43.2921  0.218137  11600.5  12776.6  13590.8  13420.2
  7145.434  7145.420  1.000  106.611  469.564  43.4548  0.223547  11385.4  12465.3  13288.5  12921.7
  7150.100  7150.080  1.000  106.357  469.604  43.6727  0.181258  11205.9  12296.2  13412.7  13030.9
  7155.063  7155.050  1.000  106.015  469.215  43.8631  0.172970  11276.4  12177.1  13224.5  13065.9
  7160.339  7160.330  1.000  105.35  469.094  44.1023  0.181514  11214.6  12251.2  13028.3  12924.8
  7165.921  7165.910  1.000  106.042  468.507  44.3036  0.193857  11208.1  12166.1  13304.6  13002.9
  7171.801  7171.790  1.000  107.73  469.229  44.6327  0.210024  11544.4  12397.5  13360.8  13247.3
  7177.987  7177.980  1.000  106.711  468.644  44.87  0.258693  11320.1  12186.3  13343.8  13159.2
  7184.492  7184.480  1.000  106.789  468.271  45.13  0.263383  11207.8  12329.5  13322.9  13146.2
  7191.293  7191.280  1.000  109.343  467.342  45.3383  0.215719  11345  12731  13470  13554.8
  7198.389  7198.380  1.000  109.391  467.637  45.6986  0.216341  11566.2  12617.9  13588.3  13382.7
  7205.799  7205.790  1.000  106.631  466.99  45.9856  0.290563  11262.9  12282.6  13316  12934.2
  7213.519  7213.510  1.000  109.415  466.363  46.2905  0.223746  11487.9  12387.8  13781.6  13369.8
  7221.528  7221.520  1.000  114.085  465.247  46.5295  0.144547  12077.8  12837.4  14350.3  13812.3
  7229.857  7229.850  1.000  108.254  464.722  46.8785  0.233941  11460.2  12218.7  13393.3  13235.7
  7238.487  7238.480  1.000  104.146  464.253  47.2529  0.339752  10841.1  11924.4  12860.7  12724.1
  7247.420  7247.410  1.000  107.254  454.65  46.6648  0.292845  11128.1  11890.2  13039.7  12704.9
  7256.666  7256.650  1.000  108.262  462.234  47.891  0.312876  11242.5  12267.9  13505.5  13026.6
  7266.199  7266.190  1.000  109.058  461.39  48.2459  0.289316  11433.2  12170.9  13437.5  13277
  7276.054  7276.040  1.000  111.696  462.373  48.7966  0.249326  11598.2  12546.4  13979.3  13521.4
  7286.204  7286.190  1.000  113.014  461.215  49.1532  0.223149  11828.2  12468.4  14044.5  13782.8
  7296.664  7296.650  1.000  110.564  460.726  49.6164  0.276203  11438.3  12460.6  13640.2  13400.5
  7307.421  7307.410  1.000  108.041  460.195  50.0693  0.357922  10949.7  12525.6  13180.6  13064.1
  7318.479  7318.470  1.000  107.289  459.113  50.477  0.366818  11025  11879.9  13342.8  13010.1
  7329.857  7329.850  1.000  108.386  458.245  50.948  0.376014  11193.1  12050.2  13455  12969.1
  7341.531  7341.520  1.000  108.188  449.223  50.4907  0.389987  10779.5  11905.9  13094.4  12820.8
  7353.508  7353.500  1.000  112.399  456.333  51.8697  0.330286  11479.8  12482.9  13873.7  13454.9
  7365.798  7365.790  1.000  113.48  455.718  52.3879  0.297000  11641.6  12473  14078  13522.1
  7378.390  7378.380  1.000  111.218  454.271  52.8616  0.373771  11252.4  12294.9  13790.9  13184.8
  7391.283  7391.270  1.000  109.562  453.21  53.357  0.459596  10896.5  12078.8  13597.7  13081.7
  7404.478  7404.470  1.000  109.902  452.693  53.9537  0.452764  11124.5  12023.8  13453.7  13150
  7417.999  7417.980  1.000  109.844  452.317  54.5477  0.457965  10978.4  12090.9  13586.9  13027.9
  7431.795  7431.790  1.000  110.436  451.381  55.1175  0.486671  11053.4  12066  13617  13112.1
  7445.901  7445.900  1.000  112.473  439.54  54.3783  0.444391  10992.2  11915.6  13409.6  13119
  7460.333  7460.320  1.000  112.856  448.478  56.1565  0.451089  11125.3  12384.7  13582.3  13520.9
  7475.063  7475.050  1.000  112.792  447.006  56.6952  0.506665  11231  12174.5  13705.4  13307.6
  7490.095  7490.080  1.000  112.593  445.08  57.1983  0.565281  10965.3  12236.6  13406.1  13504.9
  7505.413  7505.410  1.000  112.544  443.076  57.6832  0.581474  11077  12151.7  13562.4  13074.6
  7521.044  7521.050  1.000  112.764  440.754  58.1446  0.597563  11024.4  12003.5  13400.3  13272.9
  7536.977  7536.990  1.000  115.373  438.695  58.629  0.607396  11146.4  12201.9  13795.9  13469.2
  7553.239  7553.240  1.000  114.151  435.992  59.0486  0.625678  10955.5  12037.7  13534.6  13241
  7569.790  7569.790  1.000  114.567  433.779  59.5336  0.626791  10930.2  11888.6  13719.9  13157.9
  7586.650  7586.650  1.000  116.387  431.346  60.0006  0.686659  11110.2  12146.9  13631.8  13314.2
  7603.809  7603.810  1.000  115.951  426.38  60.1051  0.709061  10941.9  11960.8  13460.6  13075.9
  7621.275  7621.280  1.000  117.532  424.45  60.6359  0.744053  11043.4  12088.1  13449.8  13305.3
  7639.053  7639.050  1.000  118.139  422.186  61.142  0.773369  10820.7  12311.5  13610.1  13134.2
  7657.131  7657.130  1.000  117.986  419.076  61.4994  0.811899  10901.9  11865.9  13527.1  13150.3
  7675.500  7675.510  1.000  119.422  416.078  61.9065  0.823765  10907.9  12076.4  13539.1  13165.5
  7694.198  7694.200  1.000  120.595  413.333  62.3446  0.852507  10990.9  12028.3  13762.5  13064.3
  7713.188  7713.190  1.000  120.498  410.13  62.7198  0.896716  10887.7  11866.1  13425.2  13240.6
  7732.494  7732.490  1.000  120.53  407.025  63.104  0.938537  10786.9  11932.4  13385.2  12954.3
  7752.076  7752.090  1.000  121.341  404.273  63.5554  0.973512  10821.7  11766.3  13426.4  13040.5