File: _static/March2024/BMM/Mn_Bixbyite.001
# XDI/1.0 BlueSky/1.11.0 BMM/2023-2.1-py310-tiled
# Beamline.name: BMM (06BM) -- Beamline for Materials Measurement (NIST)
# Beamline.xray_source: NSLS-II three-pole wiggler
# Beamline.collimation: paraboloid mirror, 5 nm Rh on 30 nm Pt
# Beamline.focusing: not in use
# Beamline.harmonic_rejection: flat mirror, Si stripe, pitch = 7.0 mrad relative to beam
# Beamline.software: Bluesky 1.11.0, Ophyd 1.8.0, DataBroker 2.0.0b23, Python 3.10.8, 2023-2.1-py310-tiled
# Detector.I0: 10 cm N2
# Detector.I1: 25 cm N2
# Detector.I2: 25 cm N2
# Element.symbol: Mn
# Element.edge: K
# Element.reference: Mn
# Element.reference_material: Mn metal powder
# Facility.name: NSLS-II
# Facility.energy: 3.0
# Facility.current: 400.9
# Facility.mode: top-off
# Facility.GUP: 315355
# Facility.SAF: 313563
# Facility.cycle: 2024-1
# Mono.name: Si(111)
# Mono.d_spacing: 3.13542
# Mono.encoder_resolution: 0.0000050 deg/ct
# Mono.angle_offset: 16.0892 deg
# Mono.scan_mode: pseudo channel cut
# Mono.scan_type: step
# Mono.direction: forward in energy
# Sample.name: Mn2O3
# Sample.prep: PEG pellet
# Sample.x: 90.051 mm
# Sample.y: 81.516 mm
# Sample.SDD_position: 205.000 mm
# Scan.experimenters: XAS course 2024
# Scan.edge_energy: 6539.0
# Scan.start_time: 2024-03-21T10:28:02
# Scan.end_time: 2024-03-21T10:34:47
# Scan.transient_id: 5297
# Scan.uid: 843205a1-829c-4f09-b925-a2a63e136868
# Scan.hdf5file: None
# Scan.plot_hint: ln(I0/It)  --  ln($5/$6)
# Column.1: energy eV
# Column.2: requested_energy eV
# Column.3: measurement_time seconds
# Column.4: xmu
# Column.5: I0 nA
# Column.6: It nA
# Column.7: Ir nA
# ///////////
# Welcome to BMM
# -----------
# energy  requested_energy  measurement_time  xmu  I0  It  Ir
  6339.034  6339.000  0.500  5.522697  211.162  0.843603  0.004341
  6369.018  6369.000  0.500  5.458900  211.485  0.900553  0.004557
  6399.011  6399.000  0.500  5.398613  212.11  0.959342  0.004953
  6429.008  6429.000  0.500  5.337373  212.456  1.021593  0.005576
  6459.000  6459.000  0.500  5.287206  211.075  1.067165  0.006230
  6489.009  6489.000  0.500  5.223588  213.195  1.148688  0.006657
  6511.007  6511.000  0.500  5.182199  213.225  1.197395  0.006943
  6517.001  6517.000  0.500  5.172608  213.291  1.209309  0.006892
  6523.001  6523.000  0.500  5.163521  213.536  1.221752  0.006882
  6528.999  6529.000  0.500  5.152609  213.319  1.233901  0.006704
  6529.885  6529.900  0.500  5.153063  213.459  1.234150  0.006669
  6530.786  6530.800  0.500  5.151320  213.373  1.235803  0.006592
  6531.686  6531.700  0.500  5.149905  213.377  1.237578  0.006705
  6532.587  6532.600  0.500  5.149907  213.435  1.237910  0.006598
  6533.487  6533.500  0.500  5.148243  213.398  1.239758  0.006232
  6534.396  6534.400  0.500  5.146455  213.256  1.241150  0.006137
  6535.298  6535.300  0.500  5.146330  213.271  1.241391  0.005927
  6536.194  6536.200  0.500  5.145925  213.266  1.241865  0.005404
  6537.095  6537.100  0.500  5.147801  213.323  1.239869  0.004703
  6537.997  6538.000  0.500  5.152919  213.256  1.233152  0.002661
  6538.897  6538.900  0.500  5.172210  213.327  1.209994  0.001134
  6539.796  6539.800  0.500  5.185997  213.332  1.193452  0.000648
  6540.702  6540.700  0.500  5.185919  213.267  1.193183  0.000450
  6541.600  6541.600  0.500  5.195895  213.364  1.181879  0.000299
  6542.495  6542.500  0.500  5.204052  213.458  1.172794  0.000331
  6543.399  6543.400  0.500  5.207383  213.23  1.167643  0.000304
  6544.300  6544.300  0.500  5.216230  213.255  1.157498  0.000502
  6545.199  6545.200  0.500  5.233819  213.355  1.137846  0.000056
  6546.097  6546.100  0.500  5.273353  213.305  1.093483  0.000213
  6547.004  6547.000  0.500  5.342797  213.2  1.019622  0.000032
  6547.899  6547.900  0.500  5.426244  213.204  0.938012  0.000099
  6548.799  6548.800  0.500  5.499139  213.157  0.871874  0.000253
  6549.703  6549.700  0.500  5.588412  213.23  0.797684  -0.000261
  6550.606  6550.600  0.500  5.666792  213.357  0.737990  -0.000063
  6551.496  6551.500  0.500  5.738488  213.146  0.686250  0.000038
  6552.399  6552.400  0.500  5.829921  213.092  0.626129  -0.000102
  6553.303  6553.300  0.500  5.937277  213.06  0.562308  -0.000046
  6554.199  6554.200  0.500  6.030505  213.208  0.512612  -0.000230
  6555.096  6555.100  0.500  6.091949  213.007  0.481608  -0.000081
  6556.004  6556.000  0.500  6.125591  212.96  0.465572  -0.000335
  6556.903  6556.900  0.500  6.136851  213.044  0.460541  -0.000183
  6557.801  6557.800  0.500  6.140573  213.637  0.460108  -0.000260
  6558.702  6558.700  0.500  6.135715  213.457  0.461958  -0.000097
  6559.605  6559.600  0.500  6.111573  213.61  0.473586  -0.000072
  6560.504  6560.500  0.500  6.071510  213.182  0.491957  -0.000178
  6561.406  6561.400  0.500  6.039211  213.124  0.507967  0.000013
  6562.308  6562.300  0.500  6.029844  213.654  0.514024  -0.000184
  6563.206  6563.200  0.500  6.021491  213.571  0.518133  0.000088
  6564.002  6564.000  0.500  6.012009  213.489  0.522870  0.000001
  6567.010  6567.010  0.500  5.963664  213.39  0.548515  -0.000307
  6570.202  6570.200  0.500  5.941273  213.376  0.560898  -0.000082
  6573.564  6573.560  0.500  5.938240  213.337  0.562498  -0.000137
  6577.083  6577.080  0.500  5.876749  213.403  0.598356  -0.000161
  6580.790  6580.780  0.500  5.801758  213.541  0.645371  0.000055
  6584.664  6584.650  0.500  5.750147  213.447  0.679256  -0.000140
  6588.710  6588.700  0.500  5.735458  213.327  0.688920  -0.000179
  6592.922  6592.910  0.500  5.746458  213.355  0.681471  -0.000343
  6597.299  6597.290  0.500  5.792676  213.429  0.650918  0.000153
  6601.863  6601.850  0.500  5.824694  213.117  0.629486  -0.000128
  6606.585  6606.580  0.500  5.827451  213.325  0.628364  0.000101
  6611.491  6611.480  0.500  5.810240  213.43  0.639589  -0.000342
  6616.566  6616.550  0.500  5.782233  213.349  0.657504  -0.000016
  6621.792  6621.790  0.500  5.767660  213.515  0.667675  -0.000138
  6627.216  6627.210  0.500  5.772530  213.488  0.664348  0.000034
  6632.801  6632.790  0.500  5.768813  213.29  0.666202  -0.000014
  6638.562  6638.550  0.500  5.754357  213.462  0.676451  -0.000038
  6644.489  6644.480  0.500  5.748299  213.453  0.680530  0.000110
  6650.587  6650.580  0.500  5.728705  213.378  0.693752  -0.000001
  6656.860  6656.850  0.500  5.686616  213.335  0.723429  -0.000237
  6663.301  6663.290  0.500  5.651426  213.589  0.750232  -0.000197
  6669.912  6669.900  0.500  5.636378  213.506  0.761312  0.000037
  6676.702  6676.690  0.500  5.643163  213.33  0.755540  -0.000012
  6683.657  6683.650  0.500  5.650218  213.299  0.750120  -0.000133
  6690.773  6690.770  0.500  5.647051  213.15  0.751972  -0.000021
  6698.096  6698.070  0.500  5.633258  213.119  0.762305  0.000103
  6705.563  6705.550  0.500  5.608112  213.151  0.781834  -0.000008
  6713.203  6713.190  0.500  5.577470  213.009  0.805625  -0.000067
  6721.014  6721.000  0.500  5.564609  212.982  0.815950  -0.000142
  6729.012  6728.990  0.500  5.551198  212.793  0.826234  -0.000242
  6737.164  6737.150  0.500  5.538859  212.705  0.836146  -0.000103
  6745.475  6745.470  0.500  5.527334  212.412  0.844673  -0.000008
  6753.985  6753.970  0.500  5.512242  212.189  0.856615  -0.000053
  6762.652  6762.650  0.500  5.483918  211.936  0.880176  0.000080
  6771.490  6771.490  0.500  5.453862  211.723  0.906119  -0.000276
  6780.497  6780.500  0.500  5.430506  211.431  0.926253  0.000012
  6789.686  6789.690  0.500  5.417298  210.946  0.936415  -0.000106
  6799.060  6799.050  0.500  5.402870  210.546  0.948223  0.000025
  6808.565  6808.570  0.500  5.391990  210.452  0.958169  -0.000222
  6818.260  6818.270  0.500  5.373617  209.928  0.973505  0.000165
  6828.148  6828.150  0.500  5.348585  208.816  0.992893  -0.000225
  6838.177  6838.190  0.500  5.327346  207.606  1.008329  -0.000190
  6848.388  6848.400  0.500  5.308341  207.659  1.027938  -0.000109
  6858.806  6858.790  0.500  5.286633  207.015  1.047240  -0.000019
  6869.356  6869.350  0.500  5.264642  206.324  1.066952  0.000084
  6880.067  6880.080  0.500  5.240716  205.404  1.087917  0.000052
  6890.971  6890.980  0.500  5.221781  204.699  1.104905  -0.000091
  6902.036  6902.050  0.500  5.200133  203.796  1.124107  -0.000011
  6913.282  6913.290  0.500  5.174630  202.575  1.146234  -0.000000
  6924.690  6924.710  0.500  5.150430  201.359  1.167258  0.000058
  6936.280  6936.290  0.500  5.126506  200.329  1.189408  0.000007
  6948.041  6948.050  0.500  5.103767  199.123  1.209439  0.000013
  6959.986  6959.980  0.500  5.081681  197.983  1.229369  -0.000088
  6972.098  6972.080  0.500  5.057116  196.736  1.252007  -0.000206
  6984.361  6984.350  0.500  5.034617  195.533  1.272664  -0.000308
  6996.803  6996.790  0.500  5.013157  194.466  1.293178  -0.000202
  7009.426  7009.410  0.500  4.988179  193.411  1.318689  0.000207
  7022.181  7022.190  0.500  4.962360  192.225  1.344882  0.000149
  7035.139  7035.150  0.500  4.934931  191.017  1.373598  -0.000134
  7048.259  7048.280  0.500  4.912062  189.729  1.395892  -0.000090
  7061.564  7061.580  0.500  4.887306  188.114  1.418704  0.000060
  7075.026  7075.050  0.500  4.866430  185.808  1.430873  -0.000082
  7088.685  7088.700  0.500  4.846424  186.344  1.463994  -0.000096
  7102.491  7102.510  0.500  4.820766  185.279  1.493460  0.000062
  7116.484  7116.500  0.500  4.796740  183.802  1.517584  0.000087
  7130.641  7130.660  0.500  4.774024  182.065  1.537782  0.000035
  7144.977  7144.990  0.500  4.751282  181.048  1.564364  -0.000076
  7159.470  7159.490  0.500  4.726876  180.164  1.595191  0.000065
  7174.141  7174.160  0.500  4.702626  178.932  1.623164  0.000018
  7179.075  7179.090  0.500  4.692496  178.566  1.636341  0.000078