File: docs/_static/March2024/BMM/Mn_Pyrolucite.001
# XDI/1.0 BlueSky/1.11.0 BMM/2023-2.1-py310-tiled
# Beamline.name: BMM (06BM) -- Beamline for Materials Measurement (NIST)
# Beamline.xray_source: NSLS-II three-pole wiggler
# Beamline.collimation: paraboloid mirror, 5 nm Rh on 30 nm Pt
# Beamline.focusing: not in use
# Beamline.harmonic_rejection: flat mirror, Si stripe, pitch = 7.0 mrad relative to beam
# Beamline.software: Bluesky 1.11.0, Ophyd 1.8.0, DataBroker 2.0.0b23, Python 3.10.8, 2023-2.1-py310-tiled
# Detector.I0: 10 cm N2
# Detector.I1: 25 cm N2
# Detector.I2: 25 cm N2
# Element.symbol: Mn
# Element.edge: K
# Element.reference: Mn
# Element.reference_material: Mn metal powder
# Facility.name: NSLS-II
# Facility.energy: 3.0
# Facility.current: 399.4
# Facility.mode: top-off
# Facility.GUP: 315355
# Facility.SAF: 313563
# Facility.cycle: 2024-1
# Mono.name: Si(111)
# Mono.d_spacing: 3.13542
# Mono.encoder_resolution: 0.0000050 deg/ct
# Mono.angle_offset: 16.0892 deg
# Mono.scan_mode: pseudo channel cut
# Mono.scan_type: step
# Mono.direction: forward in energy
# Sample.name: MnO2
# Sample.prep: PEG pellet
# Sample.x: 90.051 mm
# Sample.y: 81.516 mm
# Sample.SDD_position: 205.000 mm
# Scan.experimenters: XAS course 2024
# Scan.edge_energy: 6539.0
# Scan.start_time: 2024-03-21T10:35:18
# Scan.end_time: 2024-03-21T10:42:17
# Scan.transient_id: 5302
# Scan.uid: acfe6a8e-27cd-4653-b17b-d27a9adfd3c6
# Scan.hdf5file: None
# Scan.plot_hint: ln(I0/It)  --  ln($5/$6)
# Column.1: energy eV
# Column.2: requested_energy eV
# Column.3: measurement_time seconds
# Column.4: xmu
# Column.5: I0 nA
# Column.6: It nA
# Column.7: Ir nA
# ///////////
# Welcome to BMM
# -----------
# energy  requested_energy  measurement_time  xmu  I0  It  Ir
  6339.001  6339.000  0.500  5.361233  209.571  0.983960  0.005474
  6369.031  6369.000  0.500  5.298937  209.983  1.049266  0.006183
  6399.010  6399.000  0.500  5.238926  210.462  1.116699  0.006762
  6429.008  6429.000  0.500  5.178123  210.712  1.188114  0.007439
  6458.989  6459.000  0.500  5.128673  209.168  1.239200  0.007847
  6488.999  6489.000  0.500  5.067391  211.509  1.332260  0.008381
  6511.000  6511.000  0.500  5.028384  212.427  1.391266  0.008759
  6516.992  6517.000  0.500  5.018201  212.501  1.405995  0.008901
  6522.998  6523.000  0.500  5.008321  212.633  1.420838  0.008980
  6528.997  6529.000  0.500  4.998924  212.546  1.433666  0.008767
  6529.883  6529.900  0.500  4.996881  212.405  1.435648  0.008669
  6530.786  6530.800  0.500  4.995742  212.414  1.437339  0.008696
  6531.686  6531.700  0.500  4.995490  212.502  1.438303  0.008516
  6532.586  6532.600  0.500  4.995264  212.622  1.439433  0.008231
  6533.492  6533.500  0.500  4.993044  212.402  1.441141  0.008086
  6534.394  6534.400  0.500  4.992774  212.448  1.441843  0.008039
  6535.294  6535.300  0.500  4.992878  212.494  1.442009  0.007452
  6536.198  6536.200  0.500  4.991430  212.362  1.443197  0.007175
  6537.097  6537.100  0.500  4.991863  212.356  1.442536  0.005776
  6537.992  6538.000  0.500  4.997876  212.555  1.435229  0.003122
  6538.891  6538.900  0.500  5.012118  212.485  1.414467  0.001426
  6539.798  6539.800  0.500  5.023295  212.423  1.398338  0.000659
  6540.702  6540.700  0.500  5.023557  212.324  1.397323  0.000655
  6541.598  6541.600  0.500  5.029770  212.343  1.388792  0.000373
  6542.498  6542.500  0.500  5.032741  212.473  1.385516  0.000556
  6543.403  6543.400  0.500  5.030639  212.326  1.387474  0.000514
  6544.296  6544.300  0.500  5.035397  212.243  1.380345  0.000263
  6545.201  6545.200  0.500  5.046234  212.218  1.365308  0.000333
  6546.102  6546.100  0.500  5.066954  212.178  1.337058  -0.000018
  6547.002  6547.000  0.500  5.111054  212.169  1.279318  0.000085
  6547.900  6547.900  0.500  5.196352  212.316  1.175533  -0.000009
  6548.801  6548.800  0.500  5.308224  212.109  1.050089  0.000109
  6549.701  6549.700  0.500  5.410254  212.29  0.949043  -0.000214
  6550.593  6550.600  0.500  5.474117  212.324  0.890473  -0.000077
  6551.500  6551.500  0.500  5.535643  212.312  0.837289  -0.000176
  6552.405  6552.400  0.500  5.597222  212.235  0.786999  -0.000243
  6553.297  6553.300  0.500  5.651733  212.08  0.744704  0.000027
  6554.203  6554.200  0.500  5.703611  212.187  0.707411  -0.000121
  6555.101  6555.100  0.500  5.761233  212.197  0.667833  -0.000062
  6555.997  6556.000  0.500  5.819718  212.164  0.629797  0.000031
  6556.903  6556.900  0.500  5.861124  212.086  0.604029  -0.000071
  6557.804  6557.800  0.500  5.882847  212.192  0.591346  -0.000291
  6558.700  6558.700  0.500  5.896756  211.954  0.582522  0.000049
  6559.602  6559.600  0.500  5.912212  211.976  0.573648  0.000093
  6560.502  6560.500  0.500  5.908241  211.684  0.575137  -0.000073
  6561.402  6561.400  0.500  5.880619  211.858  0.591731  -0.000078
  6562.299  6562.300  0.500  5.840108  211.947  0.616455  -0.000037
  6563.202  6563.200  0.500  5.803373  211.99  0.639650  0.000117
  6564.007  6564.000  0.500  5.780313  211.968  0.654504  0.000041
  6567.004  6567.010  0.500  5.730808  211.774  0.687091  -0.000275
  6570.204  6570.200  0.500  5.721457  211.903  0.693968  -0.000215
  6573.562  6573.560  0.500  5.730701  212.524  0.689599  -0.000230
  6577.085  6577.080  0.500  5.673683  212.743  0.730813  -0.000070
  6580.788  6580.780  0.500  5.604390  212.676  0.783001  -0.000108
  6584.659  6584.650  0.500  5.553949  212.711  0.823646  -0.000095
  6588.706  6588.700  0.500  5.524268  212.664  0.848272  -0.000316
  6592.913  6592.910  0.500  5.522938  212.639  0.849302  0.000067
  6597.301  6597.290  0.500  5.544024  212.549  0.831229  -0.000028
  6601.859  6601.850  0.500  5.571123  212.309  0.808093  -0.000051
  6606.592  6606.580  0.500  5.586168  212.605  0.797135  -0.000062
  6611.482  6611.480  0.500  5.589631  212.665  0.794603  -0.000127
  6616.558  6616.550  0.500  5.580402  212.491  0.801313  -0.000196
  6621.803  6621.790  0.500  5.568127  212.647  0.811806  0.000017
  6627.220  6627.210  0.500  5.552119  212.533  0.824465  -0.000066
  6632.801  6632.790  0.500  5.545293  212.696  0.830748  -0.000178
  6638.558  6638.550  0.500  5.536420  212.595  0.837755  -0.000072
  6644.483  6644.480  0.500  5.514910  212.617  0.856057  -0.000025
  6650.587  6650.580  0.500  5.488718  212.482  0.878217  -0.000105
  6656.862  6656.850  0.500  5.471799  212.6  0.893698  0.000021
  6663.301  6663.290  0.500  5.458407  212.455  0.905132  0.000079
  6669.914  6669.900  0.500  5.445850  212.498  0.916754  -0.000053
  6676.706  6676.690  0.500  5.425161  212.328  0.935170  -0.000014
  6683.657  6683.650  0.500  5.410156  212.291  0.949142  -0.000187
  6690.779  6690.770  0.500  5.403800  212.359  0.955497  0.000071
  6698.081  6698.070  0.500  5.393215  212.102  0.964499  0.000016
  6705.565  6705.550  0.500  5.386511  212.184  0.971360  -0.000238
  6713.198  6713.190  0.500  5.374477  212.061  0.982549  0.000104
  6721.014  6721.000  0.500  5.362510  211.997  0.994080  -0.000013
  6729.005  6728.990  0.500  5.344208  211.669  1.010872  0.000063
  6737.174  6737.150  0.500  5.323484  211.699  1.032190  0.000077
  6745.498  6745.470  0.500  5.300178  211.394  1.055003  -0.000364
  6753.975  6753.970  0.500  5.279448  211.186  1.076043  -0.000204
  6762.652  6762.650  0.500  5.260463  210.977  1.095584  -0.000196
  6771.492  6771.490  0.500  5.243760  210.755  1.112864  -0.000054
  6780.521  6780.500  0.500  5.224340  210.333  1.132415  -0.000150
  6789.691  6789.690  0.500  5.207005  209.847  1.149555  -0.000300
  6799.046  6799.050  0.500  5.188290  209.451  1.169057  0.000230
  6808.561  6808.570  0.500  5.169842  209.305  1.189997  0.000034
  6818.262  6818.270  0.500  5.155799  208.264  1.200826  -0.000183
  6828.140  6828.150  0.500  5.138755  207.108  1.214689  -0.000121
  6838.193  6838.190  0.500  5.121050  206.014  1.229852  -0.000026
  6848.422  6848.400  0.500  5.097419  205.754  1.257670  -0.000236
  6858.782  6858.790  0.500  5.075632  205.224  1.282063  0.000061
  6869.342  6869.350  0.500  5.054253  204.683  1.306316  0.000071
  6880.071  6880.080  0.500  5.033035  203.895  1.329191  0.000010
  6890.965  6890.980  0.500  5.009939  202.971  1.354084  -0.000094
  6902.034  6902.050  0.500  4.986712  202  1.379273  0.000110
  6913.284  6913.290  0.500  4.964157  200.912  1.403133  -0.000019
  6924.702  6924.710  0.500  4.940939  199.697  1.427413  -0.000055
  6936.290  6936.290  0.500  4.917190  198.605  1.453720  0.000369
  6948.066  6948.050  0.500  4.893772  197.984  1.483516  0.000035
  6959.990  6959.980  0.500  4.873971  196.836  1.504408  0.000010
  6972.092  6972.080  0.500  4.849596  195.604  1.531878  0.000222
  6984.367  6984.350  0.500  4.825088  194.271  1.559192  -0.000137
  6996.807  6996.790  0.500  4.804351  193.251  1.583502  -0.000011
  7009.397  7009.410  0.500  4.780689  191.92  1.610248  -0.000024
  7022.181  7022.190  0.500  4.755887  190.791  1.640977  -0.000112
  7035.137  7035.150  0.500  4.730559  189.642  1.672935  0.000182
  7048.259  7048.280  0.500  4.707460  188.613  1.702740  0.000255
  7061.570  7061.580  0.500  4.681386  186.96  1.732403  -0.000166
  7075.030  7075.050  0.500  4.659911  184.67  1.748325  0.000102
  7088.687  7088.700  0.500  4.638629  185.353  1.792540  0.000019
  7102.491  7102.510  0.500  4.614547  184.28  1.825602  0.000081
  7116.487  7116.500  0.500  4.593954  182.987  1.850514  -0.000145
  7130.645  7130.660  0.500  4.568270  181.127  1.879356  0.000018
  7144.979  7144.990  0.500  4.545725  180.178  1.912139  0.000033
  7159.472  7159.490  0.500  4.527369  179.286  1.937919  0.000027
  7174.139  7174.160  0.500  4.503626  178.129  1.971676  -0.000007
  7179.075  7179.090  0.500  4.495880  177.785  1.983167  0.000017