File: docs/_static/March2024/BMM/Mn_Rhodocrosite.001
# XDI/1.0 BlueSky/1.11.0 BMM/2023-2.1-py310-tiled
# Beamline.name: BMM (06BM) -- Beamline for Materials Measurement (NIST)
# Beamline.xray_source: NSLS-II three-pole wiggler
# Beamline.collimation: paraboloid mirror, 5 nm Rh on 30 nm Pt
# Beamline.focusing: not in use
# Beamline.harmonic_rejection: flat mirror, Si stripe, pitch = 7.0 mrad relative to beam
# Beamline.software: Bluesky 1.11.0, Ophyd 1.8.0, DataBroker 2.0.0b23, Python 3.10.8, 2023-2.1-py310-tiled
# Detector.I0: 10 cm N2
# Detector.I1: 25 cm N2
# Detector.I2: 25 cm N2
# Element.symbol: Mn
# Element.edge: K
# Element.reference: Mn
# Element.reference_material: Mn metal powder
# Facility.name: NSLS-II
# Facility.energy: 3.0
# Facility.current: 399.9
# Facility.mode: top-off
# Facility.GUP: 315355
# Facility.SAF: 313563
# Facility.cycle: 2024-1
# Mono.name: Si(111)
# Mono.d_spacing: 3.13542
# Mono.encoder_resolution: 0.0000050 deg/ct
# Mono.angle_offset: 16.0892 deg
# Mono.scan_mode: pseudo channel cut
# Mono.scan_type: step
# Mono.direction: forward in energy
# Sample.name: MnCO3
# Sample.prep: PEG pellet
# Sample.x: 90.051 mm
# Sample.y: 81.516 mm
# Sample.SDD_position: 205.000 mm
# Scan.experimenters: XAS course 2024
# Scan.edge_energy: 6539.0
# Scan.start_time: 2024-03-21T10:42:48
# Scan.end_time: 2024-03-21T10:49:47
# Scan.transient_id: 5307
# Scan.uid: 2733b962-47b7-45e2-ba78-430a0dd78357
# Scan.hdf5file: None
# Scan.plot_hint: ln(I0/It)  --  ln($5/$6)
# Column.1: energy eV
# Column.2: requested_energy eV
# Column.3: measurement_time seconds
# Column.4: xmu
# Column.5: I0 nA
# Column.6: It nA
# Column.7: Ir nA
# ///////////
# Welcome to BMM
# -----------
# energy  requested_energy  measurement_time  xmu  I0  It  Ir
  6338.889  6339.000  0.500  5.657009  209.016  0.730081  0.003700
  6369.020  6369.000  0.500  5.592033  209.47  0.780789  0.003817
  6399.016  6399.000  0.500  5.527544  209.797  0.834100  0.004395
  6429.014  6429.000  0.500  5.463520  209.947  0.889883  0.004869
  6458.984  6459.000  0.500  5.404320  208.861  0.939270  0.005446
  6488.997  6489.000  0.500  5.347862  210.967  1.003848  0.005897
  6511.002  6511.000  0.500  5.306529  211.112  1.046927  0.005862
  6516.989  6517.000  0.500  5.295757  211.066  1.058034  0.006020
  6522.998  6523.000  0.500  5.285195  211.077  1.069328  0.006306
  6528.995  6529.000  0.500  5.276914  211.036  1.078008  0.005853
  6529.883  6529.900  0.500  5.278057  211.173  1.077475  0.005772
  6530.784  6530.800  0.500  5.274652  210.973  1.080130  0.005860
  6531.683  6531.700  0.500  5.273926  210.929  1.080687  0.005751
  6532.589  6532.600  0.500  5.274114  210.922  1.080448  0.005976
  6533.492  6533.500  0.500  5.273911  210.879  1.080445  0.005367
  6534.392  6534.400  0.500  5.274053  211.583  1.083899  0.005627
  6535.290  6535.300  0.500  5.274274  211.486  1.083160  0.005230
  6536.198  6536.200  0.500  5.274772  211.397  1.082167  0.004913
  6537.098  6537.100  0.500  5.275797  211.327  1.080700  0.003989
  6537.999  6538.000  0.500  5.282935  211.466  1.073721  0.002071
  6538.899  6538.900  0.500  5.299312  211.416  1.056029  0.000913
  6539.800  6539.800  0.500  5.313375  211.446  1.041430  0.000402
  6540.696  6540.700  0.500  5.304739  211.199  1.049235  0.000437
  6541.596  6541.600  0.500  5.303375  211.144  1.050392  0.000186
  6542.500  6542.500  0.500  5.319399  211.2  1.033972  0.000305
  6543.403  6543.400  0.500  5.356035  211.104  0.996322  0.000293
  6544.300  6544.300  0.500  5.460112  211.295  0.898655  0.000129
  6545.201  6545.200  0.500  5.624006  211.254  0.762659  -0.000014
  6546.100  6546.100  0.500  5.789968  211.223  0.645936  -0.000091
  6546.998  6547.000  0.500  6.043840  211.201  0.501059  -0.000072
  6547.899  6547.900  0.500  6.395178  211.284  0.352757  0.000091
  6548.801  6548.800  0.500  6.798490  211.383  0.235788  0.000033
  6549.703  6549.700  0.500  7.082125  211.392  0.177567  -0.000011
  6550.600  6550.600  0.500  7.125571  211.456  0.170069  -0.000133
  6551.503  6551.500  0.500  7.090247  211.488  0.176210  0.000152
  6552.403  6552.400  0.500  6.989515  211.49  0.194887  -0.000214
  6553.301  6553.300  0.500  6.834591  211.584  0.227645  0.000137
  6554.201  6554.200  0.500  6.649554  211.814  0.274214  0.000144
  6555.105  6555.100  0.500  6.500215  211.768  0.318311  -0.000073
  6556.002  6556.000  0.500  6.437911  211.71  0.338682  0.000060
  6556.899  6556.900  0.500  6.413331  211.746  0.347169  -0.000212
  6557.804  6557.800  0.500  6.429841  211.724  0.341448  -0.000074
  6558.702  6558.700  0.500  6.494624  211.715  0.320017  0.000057
  6559.602  6559.600  0.500  6.576587  211.843  0.295011  -0.000365
  6560.502  6560.500  0.500  6.628612  211.523  0.279633  -0.000164
  6561.404  6561.400  0.500  6.639971  211.593  0.276566  0.000100
  6562.303  6562.300  0.500  6.622672  211.905  0.281807  -0.000122
  6563.204  6563.200  0.500  6.578239  212.039  0.294797  0.000026
  6564.003  6564.000  0.500  6.526365  212.029  0.310478  -0.000136
  6567.033  6567.010  0.500  6.282505  212.086  0.396329  -0.000149
  6570.195  6570.200  0.500  6.091082  211.674  0.479009  0.000050
  6573.567  6573.560  0.500  6.033511  211.95  0.508059  -0.000163
  6577.082  6577.080  0.500  6.063823  211.752  0.492428  -0.000148
  6580.790  6580.780  0.500  6.158289  211.782  0.448104  -0.000281
  6584.659  6584.650  0.500  6.289179  211.932  0.393406  -0.000266
  6588.708  6588.700  0.500  6.321411  211.851  0.380782  -0.000052
  6592.917  6592.910  0.500  6.372432  211.905  0.361934  -0.000040
  6597.301  6597.290  0.500  6.377451  211.756  0.359868  0.000011
  6601.855  6601.850  0.500  6.294683  211.546  0.390534  -0.000251
  6606.591  6606.580  0.500  6.273193  211.787  0.399472  -0.000255
  6611.489  6611.480  0.500  6.260532  211.905  0.404788  0.000035
  6616.566  6616.550  0.500  6.211984  211.781  0.424676  -0.000034
  6621.799  6621.790  0.500  6.153128  211.777  0.450411  -0.000240
  6627.220  6627.210  0.500  6.146927  212.319  0.454372  -0.000217
  6632.796  6632.790  0.500  6.150083  212.446  0.453212  -0.000131
  6638.558  6638.550  0.500  6.144098  212.283  0.455584  -0.000215
  6644.487  6644.480  0.500  6.144493  212.212  0.455250  -0.000039
  6650.585  6650.580  0.500  6.139007  212.331  0.458011  0.000024
  6656.862  6656.850  0.500  6.134913  212.358  0.459949  -0.000169
  6663.293  6663.290  0.500  6.121777  212.222  0.465732  0.000141
  6669.910  6669.900  0.500  6.120501  212.366  0.466644  0.000163
  6676.702  6676.690  0.500  6.120042  212.26  0.466624  0.000006
  6683.661  6683.650  0.500  6.081595  212.146  0.484655  -0.000117
  6690.781  6690.770  0.500  6.035684  212.051  0.507197  -0.000221
  6698.079  6698.070  0.500  6.010441  212.208  0.520547  -0.000179
  6705.565  6705.550  0.500  6.008000  211.953  0.521194  -0.000324
  6713.205  6713.190  0.500  5.990454  211.957  0.530427  -0.000238
  6721.014  6721.000  0.500  5.974127  211.763  0.538667  -0.000240
  6729.014  6728.990  0.500  5.950541  211.482  0.550789  -0.000371
  6737.159  6737.150  0.500  5.929234  211.405  0.562448  -0.000073
  6745.485  6745.470  0.500  5.918350  211.152  0.567922  -0.000272
  6753.968  6753.970  0.500  5.903974  211.067  0.575914  -0.000002
  6762.652  6762.650  0.500  5.890360  210.738  0.582898  -0.000281
  6771.488  6771.490  0.500  5.866977  210.465  0.595915  0.000117
  6780.505  6780.500  0.500  5.837628  210.283  0.613133  0.000035
  6789.691  6789.690  0.500  5.809240  209.841  0.629462  -0.000102
  6799.054  6799.050  0.500  5.786080  209.301  0.642552  -0.000284
  6808.595  6808.570  0.500  5.763429  209.269  0.657173  -0.000056
  6818.262  6818.270  0.500  5.740634  208.025  0.668327  -0.000282
  6828.146  6828.150  0.500  5.727609  206.999  0.673750  -0.000095
  6838.183  6838.190  0.500  5.709455  205.839  0.682249  -0.000167
  6848.392  6848.400  0.500  5.677428  205.786  0.704270  -0.000014
  6858.784  6858.790  0.500  5.654782  205.308  0.718730  -0.000250
  6869.334  6869.350  0.500  5.632225  204.554  0.732426  -0.000088
  6880.069  6880.080  0.500  5.609704  203.826  0.746442  -0.000103
  6890.967  6890.980  0.500  5.585055  203.048  0.762150  0.000221
  6902.046  6902.050  0.500  5.552988  201.889  0.782493  -0.000223
  6913.282  6913.290  0.500  5.527726  200.793  0.798157  -0.000035
  6924.710  6924.710  0.500  5.502696  199.697  0.813919  0.000117
  6936.274  6936.290  0.500  5.476809  198.594  0.830652  -0.000145
  6948.045  6948.050  0.500  5.452084  197.531  0.846887  0.000017
  6959.990  6959.980  0.500  5.425918  196.343  0.864110  0.000035
  6972.096  6972.080  0.500  5.398695  195.226  0.882905  0.000012
  6984.365  6984.350  0.500  5.374058  194.078  0.899605  0.000106
  6996.807  6996.790  0.500  5.348364  192.88  0.917325  -0.000079
  7009.395  7009.410  0.500  5.320589  191.79  0.937827  0.000110
  7022.183  7022.190  0.500  5.291202  190.481  0.959204  -0.000155
  7035.150  7035.150  0.500  5.267545  189.254  0.975841  -0.000155
  7048.287  7048.280  0.500  5.241055  188.15  0.996190  0.000112
  7061.564  7061.580  0.500  5.210870  186.66  1.018592  -0.000099
  7075.033  7075.050  0.500  5.185277  184.287  1.031708  0.000128
  7088.687  7088.700  0.500  5.160995  184.84  1.060238  -0.000090
  7102.493  7102.510  0.500  5.130261  184.557  1.091656  -0.000002
  7116.482  7116.500  0.500  5.105689  183.305  1.111224  0.000175
  7130.641  7130.660  0.500  5.080810  181.652  1.128946  -0.000131
  7144.982  7144.990  0.500  5.055100  180.593  1.151594  0.000049
  7159.465  7159.490  0.500  5.026516  179.526  1.177982  0.000188
  7174.141  7174.160  0.500  5.002751  178.638  1.200344  0.000029
  7179.075  7179.090  0.500  4.992717  178.245  1.209784  0.000108