File: docs/_static/March2024/BMM/Zn_Petedunnite.001
# XDI/1.0 BlueSky/1.11.0 BMM/2023-2.1-py310-tiled
# Beamline.name: BMM (06BM) -- Beamline for Materials Measurement (NIST)
# Beamline.xray_source: NSLS-II three-pole wiggler
# Beamline.collimation: paraboloid mirror, 5 nm Rh on 30 nm Pt
# Beamline.focusing: not in use
# Beamline.harmonic_rejection: flat mirror, Pt stripe, pitch = 7.0 mrad relative to beam
# Beamline.software: Bluesky 1.11.0, Ophyd 1.8.0, DataBroker 2.0.0b23, Python 3.10.8, 2023-2.1-py310-tiled
# Detector.I0: 10 cm N2
# Detector.I1: 25 cm N2
# Detector.I2: 25 cm N2
# Detector.fluorescence: SII Vortex ME4 (4-element silicon drift)
# Detector.deadtime_correction: Xspress3
# Element.symbol: Zn
# Element.edge: K
# Element.reference: Zn
# Element.reference_material: Zn foil
# Facility.name: NSLS-II
# Facility.energy: 3.0
# Facility.current: 400.5
# Facility.mode: top-off
# Facility.GUP: 315355
# Facility.SAF: 313563
# Facility.cycle: 2024-1
# Mono.name: Si(111)
# Mono.d_spacing: 3.13542
# Mono.encoder_resolution: 0.0000050 deg/ct
# Mono.angle_offset: 16.0892 deg
# Mono.scan_mode: pseudo channel cut
# Mono.scan_type: step
# Mono.direction: forward in energy
# Sample.name: Ca(Zn,Mn,Fe,Mg)Si2O6
# Sample.prep: powder on tape
# Sample.x: 113.234 mm
# Sample.y: 81.177 mm
# Sample.SDD_position: 53.000 mm
# Scan.experimenters: Bruce Ravel
# Scan.edge_energy: 9658.6
# Scan.start_time: 2024-03-21T14:17:02
# Scan.end_time: 2024-03-21T14:26:59
# Scan.transient_id: 5346
# Scan.uid: 29689920-dc6b-424a-b1d8-14e98cce49f8
# Scan.hdf5file: 2024/03/21/e36c9c17-91e3-42f2-855f_000000.h5
# Scan.plot_hint: (Zn1+Zn2+Zn3+Zn4)/I0  --  ($8+$9+$10+$11)/$5
# Column.1: energy eV
# Column.2: requested_energy eV
# Column.3: measurement_time seconds
# Column.4: xmu
# Column.5: I0 nA
# Column.6: It nA
# Column.7: Ir nA
# Column.8: Zn1
# Column.9: Zn2
# Column.10: Zn3
# Column.11: Zn4
# ///////////
# sample courtesy Martin Stennett, University of Sheffield
# -----------
# energy  requested_energy  measurement_time  xmu  I0  It  Ir  Zn1  Zn2  Zn3  Zn4
  9458.629  9458.600  1.000  26.5969  394.12  131.768  68.5061  3680.58  3531.32  1443.94  1826.52
  9498.625  9498.600  1.000  23.7117  390.252  132.102  69.3049  3232.87  3178.8  1255.69  1586.2
  9538.631  9538.600  1.000  21.1803  386.146  132.281  70.0322  2870.97  2724.16  1176.6  1406.96
  9578.614  9578.600  1.000  18.9897  382.444  132.562  70.7778  2556.59  2428.74  1053.44  1223.72
  9618.594  9618.600  1.000  17.4912  378.519  132.719  71.3797  2350.44  2169.38  947.302  1153.63
  9634.582  9634.600  1.000  16.7625  376.477  132.581  71.4215  2244.67  2026.17  902.247  1137.62
  9642.573  9642.600  1.000  16.8219  376.06  132.743  71.4263  2159.82  2054.22  920.277  1191.71
  9648.863  9648.900  1.000  17.6626  374.346  132.361  70.999  2258.49  2105.29  994.374  1253.78
  9650.070  9650.100  1.000  17.1316  374.899  132.589  71.0367  2187.36  2039.19  999.383  1196.7
  9651.273  9651.300  1.000  17.7182  374.638  132.546  70.9155  2218.37  2162.38  1010.4  1246.78
  9652.476  9652.500  1.000  17.4605  374.703  132.627  70.8015  2160  2114.31  1006.4  1261.8
  9653.696  9653.700  1.000  18.0052  374.517  132.605  70.6028  2267.62  2137.35  1063.48  1274.82
  9654.908  9654.900  1.000  18.3901  375.372  132.931  70.5113  2287.23  2238.52  1100.54  1276.83
  9656.096  9656.100  1.000  18.9462  375.131  132.895  70.1268  2461.39  2198.46  1134.58  1312.88
  9657.289  9657.300  1.000  19.6563  375.012  132.903  69.5697  2421.96  2303.64  1207.69  1438.07
  9658.498  9658.500  1.000  20.437  374.881  132.897  68.6118  2428.65  2452.87  1283.79  1496.15
  9659.691  9659.700  1.000  21.5692  374.772  132.925  66.5692  2726.61  2332.66  1413.97  1610.3
  9660.900  9660.900  1.000  23.0703  374.588  132.892  60.8909  2692  2596.1  1571.2  1782.56
  9662.106  9662.100  1.000  26.6976  374.209  132.793  50.0492  3099.21  2911.61  1853.6  2126.07
  9663.304  9663.300  1.000  34.903  373.942  132.739  41.7867  3716.77  3709.89  2699.82  2925.24
  9664.498  9664.500  1.000  52.9271  373.905  132.763  37.1947  5253.93  5181.29  4493.42  4861.1
  9665.693  9665.700  1.000  84.3984  373.534  132.611  34.8175  7799.43  8317.56  7519.94  7888.77
  9666.900  9666.900  1.000  127.691  373.346  132.526  33.1342  11635.5  12104.2  11744.6  12188.7
  9668.099  9668.100  1.000  152.352  372.367  132.181  31.016  13751.5  14175  14140.6  14663.9
  9669.295  9669.300  1.000  155.679  372.722  132.353  29.2139  13989.8  14687.9  14431  14916.4
  9670.503  9670.500  1.000  160.479  372.729  132.388  27.8424  14502.4  15011.6  14983  15318.1
  9671.711  9671.700  1.000  163.979  372.301  132.272  27.1641  14679  15334.2  15459.9  15576.6
  9672.883  9672.900  1.000  150.527  372.28  132.348  27.898  13844  14070.8  13973.3  14150.1
  9674.104  9674.100  1.000  139.402  371.881  132.257  29.7762  12623.7  13276.3  12919.6  13021.2
  9675.305  9675.300  1.000  134.855  371.598  132.212  31.4528  12275.2  12619.2  12261.4  12956
  9676.499  9676.500  1.000  128.131  371.347  132.168  32.3078  11734.8  12100.2  11604.4  12141.7
  9677.696  9677.700  1.000  115.95  371.256  132.189  32.6553  10526.7  10900.1  10658.9  10961.7
  9678.898  9678.900  1.000  108.073  371.032  132.177  32.7307  9880.53  10183.9  9843.62  10190.5
  9680.092  9680.100  1.000  100.721  370.576  132.064  32.847  9466.56  9406.5  9059.35  9392.21
  9681.295  9681.300  1.000  98.1137  370.55  132.109  33.3431  9117.95  9214.17  8826.01  9197.9
  9682.506  9682.500  1.000  97.5186  370.391  132.114  34.0754  8976.1  9254.21  8903.12  8986.56
  9683.596  9683.600  1.000  97.3578  369.784  131.916  34.6594  8899.66  9124.99  8796.9  9179.81
  9687.674  9687.660  1.000  104.083  369.344  131.877  35.0998  9335.49  9906.32  9569.1  9631.55
  9692.039  9692.020  1.000  94.067  370.344  132.426  33.9874  8759.71  8975.87  8377.34  8724.21
  9696.697  9696.680  1.000  85.3186  369.664  132.366  32.3349  8009.93  8185.48  7468.98  7874.87
  9701.672  9701.650  1.000  92.9347  369.049  132.312  31.8371  8511.61  8809.54  8254.13  8722.2
  9706.934  9706.930  1.000  103.269  368.401  132.262  32.9042  9339.7  9641.01  9440.01  9623.68
  9712.515  9712.510  1.000  109.804  368.085  132.35  33.2053  9917.68  10190  10101.1  10208.6
  9718.397  9718.390  1.000  110.16  366.957  132.147  32.7341  9722.8  10357.3  10006  10337.8
  9724.593  9724.580  1.000  112.442  366.466  132.202  32.9469  9907.18  10790  10178.3  10330.8
  9731.095  9731.080  1.000  110.086  365.769  132.187  32.7082  9586.95  10360.3  9894.77  10424
  9737.898  9737.880  1.000  106.296  365.075  132.181  31.9948  9370.04  9987.62  9675.39  9772.93
  9744.997  9744.980  1.000  103.485  364.296  132.157  32.3194  9199.89  9537.89  9291.83  9669.76
  9752.403  9752.390  1.000  102.332  363.606  132.196  33.4838  9144.5  9474.79  9241.78  9347.3
  9760.121  9760.110  1.000  102.679  362.876  132.189  34.0869  9317.11  9450.8  9103.57  9388.37
  9768.127  9768.120  1.000  102.688  362.06  132.187  34.0017  9050.39  9303.49  9159.61  9665.78
  9776.466  9776.450  1.000  103.602  361.522  132.274  33.2742  9021.93  9454.82  9365.03  9612.75
  9785.092  9785.080  1.000  105.534  356.67  130.792  32.2874  9210.6  9510.81  9295.8  9623.71
  9794.040  9794.010  1.000  107.517  359.773  132.233  32.9394  9310.63  9791.44  9700.52  9879.25
  9803.258  9803.250  1.000  106.246  353.611  130.307  32.9003  9107.29  9480.77  9365.96  9615.7
  9812.824  9812.790  1.000  105.003  357.755  132.143  34.1372  8936.33  9513.03  9375.13  9741.04
  9822.679  9822.640  1.000  104.768  356.953  132.186  34.7681  9057.46  9481.95  9312.99  9544.76
  9832.809  9832.790  1.000  103.911  355.773  132.101  34.2031  8984.65  9399.87  9141.74  9442.59
  9843.267  9843.250  1.000  104.77  353.809  131.729  34.0433  8952.19  9233.55  9338.04  9544.74
  9854.033  9854.010  1.000  103.412  353.857  132.113  34.0636  8909.2  9216.55  9090.68  9376.51
  9865.097  9865.070  1.000  104.034  352.509  131.967  34.0618  8851.86  9290.72  9059.68  9470.67
  9876.472  9876.450  1.000  103.707  350.838  131.729  34.494  8926.8  9179.52  9050.63  9227.27
  9888.146  9888.120  1.000  103.605  350.404  131.962  35.2794  8900.14  9067.42  8995.65  9340.52
  9900.123  9900.100  1.000  103.069  349.611  132.043  35.5115  8583.04  8984.38  9147.98  9318.63
  9912.393  9912.390  1.000  103.034  348.652  132.109  35.4116  8568.29  9041.43  8975.68  9337.6
  9924.992  9924.980  1.000  103.646  346.919  131.844  35.4139  8459.06  9001.34  9096.8  9399.64
  9937.885  9937.870  1.000  103.476  346.392  132.054  35.5913  8740.89  8981.36  9041.79  9079.22
  9951.069  9951.070  1.000  101.9  345.033  131.957  35.8091  8432.13  8801.1  8859.53  9066.22
  9964.593  9964.580  1.000  102.365  343.64  131.872  36.2194  8464.72  8857.2  8797.42  9057.2
  9978.414  9978.390  1.000  102.922  342.565  131.896  36.6217  8434.47  8680.94  8881.58  9260.55
  9992.516  9992.500  1.000  101.859  340.726  131.629  36.7722  8302.52  8556.75  8857.56  8989.17
  10006.935  10006.920  1.000  102.682  339.702  131.688  36.9296  8157.28  8742.11  8819.56  9162.45
  10021.671  10021.650  1.000  101.624  338.251  131.576  37.0504  8301.53  8560.82  8720.37  8791.88
  10036.713  10036.680  1.000  101.999  334.452  130.567  36.9733  8191.03  8510.68  8582.16  8829.86
  10052.029  10052.010  1.000  100.989  335.246  131.354  37.5369  8091.45  8492.68  8484.01  8787.84
  10067.668  10067.650  1.000  101.215  333.359  131.076  37.8259  7993.23  8564.88  8435  8747.85
  10083.622  10083.590  1.000  101.572  331.406  130.786  38.0242  8073.11  8481.72  8404.95  8701.79
  10099.874  10099.840  1.000  101.523  329.812  130.654  38.2682  7964.11  8272.35  8417  8830
  10116.392  10116.390  1.000  101.644  327.812  130.355  38.4175  7940.07  8274.37  8488.04  8617.64
  10133.282  10133.250  1.000  101.286  326.138  130.191  38.5963  7938.69  8122.12  8399.95  8572.6
  10150.442  10150.410  1.000  100.697  324.201  129.92  38.8018  7647.54  8118.14  8425.98  8454.41
  10167.922  10167.880  1.000  101.178  322.047  129.567  39.0226  7656.69  8081.06  8290.83  8555.59
  10185.643  10185.650  1.000  99.9738  320.233  129.339  39.2718  7536.21  8099.1  8121.52  8258.09
  10203.720  10203.730  1.000  100.792  317.967  128.954  39.4578  7455.66  8163.24  8221.7  8208.02
  10222.126  10222.110  1.000  101.373  315.78  128.593  39.6323  7444.63  8024.01  8268.77  8274.12
  10240.794  10240.800  1.000  100.321  312.964  127.981  39.7156  7372.12  7765.46  8120.51  8138.85
  10259.778  10259.790  1.000  102.25  311.279  127.815  39.9435  7405.72  7915.79  8258.75  8248.09
  10279.085  10279.090  1.000  101.852  309.032  127.429  40.1349  7380.55  7823.63  8131.52  8139.88
  10298.688  10298.690  1.000  102.328  307.813  127.469  40.461  7423.68  7944.89  7922.22  8207.04