File: docs/_static/March2024/BMM/Zn_ZnO.001
# XDI/1.0 BlueSky/1.11.0 BMM/2023-2.1-py310-tiled
# Beamline.name: BMM (06BM) -- Beamline for Materials Measurement (NIST)
# Beamline.xray_source: NSLS-II three-pole wiggler
# Beamline.collimation: paraboloid mirror, 5 nm Rh on 30 nm Pt
# Beamline.focusing: not in use
# Beamline.harmonic_rejection: flat mirror, Pt stripe, pitch = 7.0 mrad relative to beam
# Beamline.software: Bluesky 1.11.0, Ophyd 1.8.0, DataBroker 2.0.0b23, Python 3.10.8, 2023-2.1-py310-tiled
# Detector.I0: 10 cm N2
# Detector.I1: 25 cm N2
# Detector.I2: 25 cm N2
# Element.symbol: Zn
# Element.edge: K
# Element.reference: Zn
# Element.reference_material: Zn foil
# Facility.name: NSLS-II
# Facility.energy: 3.0
# Facility.current: 400.1
# Facility.mode: top-off
# Facility.GUP: 315355
# Facility.SAF: 313563
# Facility.cycle: 2024-1
# Mono.name: Si(111)
# Mono.d_spacing: 3.13542
# Mono.encoder_resolution: 0.0000050 deg/ct
# Mono.angle_offset: 16.0892 deg
# Mono.scan_mode: pseudo channel cut
# Mono.scan_type: step
# Mono.direction: forward in energy
# Sample.name: ZnO
# Sample.prep: powder on tape
# Sample.x: 113.234 mm
# Sample.y: 81.177 mm
# Sample.SDD_position: 205.000 mm
# Scan.experimenters: Bruce Ravel
# Scan.edge_energy: 9658.6
# Scan.start_time: 2024-03-21T13:54:32
# Scan.end_time: 2024-03-21T14:01:32
# Scan.transient_id: 5330
# Scan.uid: 6cb172b4-bdf4-4b8d-a7ff-3f046fcddf0e
# Scan.hdf5file: None
# Scan.plot_hint: ln(I0/It)  --  ln($5/$6)
# Column.1: energy eV
# Column.2: requested_energy eV
# Column.3: measurement_time seconds
# Column.4: xmu
# Column.5: I0 nA
# Column.6: It nA
# Column.7: Ir nA
# ///////////
# sample courtesy Martin Stennett, University of Sheffield
# -----------
# energy  requested_energy  measurement_time  xmu  I0  It  Ir
  9458.636  9458.600  0.500  1.571619  194.266  40.3508  20.707
  9488.645  9488.600  0.500  1.558281  192.627  40.5476  20.9611
  9518.630  9518.600  0.500  1.544956  191.307  40.8098  21.2407
  9548.628  9548.600  0.500  1.532211  189.853  41.0191  21.5021
  9578.587  9578.600  0.500  1.520007  188.832  41.2996  21.7822
  9608.578  9608.600  0.500  1.509480  187.392  41.4182  21.9898
  9630.578  9630.600  0.500  1.505084  186.326  41.3641  22.0381
  9636.572  9636.600  0.500  1.505590  185.92  41.2532  21.9832
  9642.569  9642.600  0.500  1.507990  185.764  41.1198  21.9054
  9648.570  9648.600  0.500  1.514301  185.15  40.7261  21.6393
  9649.458  9649.500  0.500  1.515889  185.475  40.7327  21.6235
  9650.364  9650.400  0.500  1.517817  185.701  40.7039  21.5855
  9651.269  9651.300  0.500  1.520039  185.647  40.6017  21.5086
  9652.174  9652.200  0.500  1.522824  185.663  40.4922  21.42
  9653.084  9653.100  0.500  1.525996  185.688  40.3694  21.3205
  9653.986  9654.000  0.500  1.529708  185.781  40.24  21.2014
  9654.892  9654.900  0.500  1.534191  185.695  40.0414  21.042
  9655.786  9655.800  0.500  1.540055  185.66  39.7997  20.8381
  9656.684  9656.700  0.500  1.547278  185.735  39.5293  20.5946
  9657.591  9657.600  0.500  1.556615  185.767  39.1686  20.2557
  9658.490  9658.500  0.500  1.568872  185.733  38.6844  19.7856
  9659.392  9659.400  0.500  1.586496  185.791  38.0205  19.0585
  9660.295  9660.300  0.500  1.613482  185.712  36.9925  17.7493
  9661.195  9661.200  0.500  1.659091  185.738  35.3482  15.3278
  9662.094  9662.100  0.500  1.739731  185.668  32.5973  12.1692
  9663.002  9663.000  0.500  1.892363  185.598  27.9725  9.115468
  9663.897  9663.900  0.500  2.155618  185.736  21.5141  6.349778
  9664.789  9664.800  0.500  2.531122  185.589  14.7672  4.057901
  9665.693  9665.700  0.500  2.861878  185.62  10.6103  2.774362
  9666.605  9666.600  0.500  2.978417  185.544  9.439241  2.372122
  9667.498  9667.500  0.500  3.016183  185.314  9.078137  2.185361
  9668.402  9668.400  0.500  3.113795  185.002  8.220015  1.886108
  9669.303  9669.300  0.500  3.280195  185.225  6.968324  1.532773
  9670.196  9670.200  0.500  3.482473  185.279  5.693858  1.205969
  9671.089  9671.100  0.500  3.680858  185.262  4.668849  0.960745
  9671.994  9672.000  0.500  3.781870  185.239  4.219761  0.861692
  9672.907  9672.900  0.500  3.697657  185.064  4.586162  0.962904
  9673.801  9673.800  0.500  3.512586  185.785  5.540065  1.221049
  9674.707  9674.700  0.500  3.308718  185.73  6.790865  1.568212
  9675.597  9675.600  0.500  3.159244  185.781  7.887864  1.877230
  9676.503  9676.500  0.500  3.032247  185.756  8.954754  2.167254
  9677.389  9677.400  0.500  2.910841  185.691  10.1072  2.467529
  9678.295  9678.300  0.500  2.841874  185.614  10.8243  2.652742
  9679.202  9679.200  0.500  2.844249  185.556  10.7953  2.650533
  9680.109  9680.100  0.500  2.908787  185.402  10.1122  2.495557
  9681.008  9681.000  0.500  3.018372  185.458  9.065315  2.259397
  9681.907  9681.900  0.500  3.111243  185.332  8.255696  2.088938
  9682.798  9682.800  0.500  3.140955  185.301  8.012709  2.060069
  9683.600  9683.600  0.500  3.117235  185.269  8.203601  2.134779
  9686.632  9686.610  0.500  3.010341  184.962  9.113986  2.405230
  9689.811  9689.800  0.500  2.876055  184.934  10.4223  2.704900
  9693.192  9693.160  0.500  2.781122  184.711  11.4463  2.862968
  9696.693  9696.680  0.500  2.676919  184.567  12.6935  3.064504
  9700.408  9700.380  0.500  2.657119  184.289  12.9279  3.074946
  9704.252  9704.250  0.500  2.734139  184.131  11.9593  2.891171
  9708.306  9708.300  0.500  2.841642  183.715  10.7161  2.655714
  9712.532  9712.510  0.500  2.957507  183.882  9.552327  2.371802
  9716.908  9716.890  0.500  3.114792  183.612  8.150109  1.997649
  9721.459  9721.450  0.500  2.987898  183.299  9.237035  2.270801
  9726.203  9726.180  0.500  2.926326  182.967  9.805848  2.417157
  9731.104  9731.080  0.500  2.927014  182.728  9.786299  2.395030
  9736.156  9736.150  0.500  2.987130  182.584  9.208052  2.215407
  9741.391  9741.390  0.500  3.034301  182.212  8.765919  2.094438
  9746.811  9746.810  0.500  2.987571  182.059  9.177563  2.241291
  9752.403  9752.390  0.500  2.904209  181.566  9.948408  2.490990
  9758.161  9758.150  0.500  2.820061  181.34  10.8083  2.742095
  9764.100  9764.080  0.500  2.788143  181.107  11.1445  2.850685
  9770.194  9770.180  0.500  2.816951  180.669  10.8018  2.731691
  9776.470  9776.450  0.500  2.883192  180.599  10.1056  2.513138
  9782.903  9782.890  0.500  2.913826  179.854  9.760291  2.384474
  9789.514  9789.500  0.500  2.904869  179.538  9.830803  2.409536
  9796.317  9796.290  0.500  2.918600  179.415  9.690090  2.391913
  9803.275  9803.250  0.500  2.917641  176.335  9.532859  2.378907
  9810.401  9810.370  0.500  2.862442  178.811  10.2153  2.590916
  9817.713  9817.670  0.500  2.836339  178.311  10.4562  2.702004
  9825.132  9825.150  0.500  2.866821  177.981  10.1235  2.624135
  9832.793  9832.790  0.500  2.892664  177.519  9.839593  2.516081
  9840.587  9840.600  0.500  2.885827  177.093  9.883321  2.521464
  9848.586  9848.590  0.500  2.859043  176.63  10.1251  2.581630
  9856.771  9856.750  0.500  2.826278  176.278  10.4415  2.656174
  9865.092  9865.070  0.500  2.792402  175.675  10.7643  2.743793
  9873.584  9873.570  0.500  2.788605  175.375  10.7868  2.773826
  9882.259  9882.250  0.500  2.809040  174.899  10.5399  2.757284
  9891.102  9891.090  0.500  2.827002  174.533  10.3306  2.736331
  9900.110  9900.100  0.500  2.831054  173.901  10.2516  2.721478
  9909.308  9909.290  0.500  2.813835  173.342  10.3961  2.751905
  9918.673  9918.650  0.500  2.801986  173.04  10.5017  2.781967
  9928.180  9928.170  0.500  2.784818  172.633  10.6585  2.827296
  9937.889  9937.870  0.500  2.771606  172.621  10.7994  2.872931
  9947.763  9947.750  0.500  2.761141  172.116  10.8811  2.908515
  9957.798  9957.790  0.500  2.756334  167.299  10.6275  2.861293
  9968.022  9968.000  0.500  2.759716  170.618  10.8018  2.940020
  9978.418  9978.390  0.500  2.756327  170.302  10.8184  2.966683
  9988.966  9988.950  0.500  2.735171  169.554  11.0012  3.030530
  9999.701  9999.680  0.500  2.714019  169.141  11.209  3.098150
  10010.598  10010.580  0.500  2.709944  166.586  11.0847  3.073111
  10021.702  10021.650  0.500  2.706624  167.847  11.2057  3.117003
  10032.922  10032.890  0.500  2.705927  167.074  11.162  3.116869
  10044.348  10044.310  0.500  2.703276  166.717  11.1676  3.136343
  10055.913  10055.890  0.500  2.694703  166.039  11.218  3.174537
  10067.682  10067.650  0.500  2.681718  165.396  11.3206  3.226920
  10079.619  10079.580  0.500  2.667540  164.804  11.4411  3.279689
  10091.726  10091.680  0.500  2.655042  161.871  11.3789  3.279750
  10103.977  10103.950  0.500  2.645672  163.307  11.5879  3.356462
  10116.419  10116.390  0.500  2.638826  162.683  11.6229  3.381308
  10129.047  10129.010  0.500  2.634590  161.916  11.6173  3.395009
  10141.814  10141.790  0.500  2.625100  161.126  11.6707  3.428894
  10154.816  10154.750  0.500  2.614039  160.418  11.7487  3.472189
  10167.895  10167.880  0.500  2.605068  159.598  11.794  3.507938
  10181.203  10181.180  0.500  2.593415  158.951  11.8839  3.554153
  10194.680  10194.650  0.500  2.585435  157.995  11.9071  3.583394
  10208.335  10208.300  0.500  2.579774  157.163  11.9116  3.605717
  10222.144  10222.110  0.500  2.572309  156.514  11.9513  3.635882
  10236.136  10236.100  0.500  2.561991  155.671  12.0102  3.672645
  10250.277  10250.260  0.500  2.550371  154.901  12.0904  3.716898
  10264.572  10264.590  0.500  2.539872  154.1  12.1548  3.757804
  10279.108  10279.090  0.500  2.528965  153.16  12.2132  3.798475
  10293.806  10293.760  0.500  2.519932  152.465  12.2682  3.836702
  10298.665  10298.690  0.500  2.516955  152.17  12.2808  3.848363